9/16/2019	10:55 AM
Amplitude: 2.00 V
Freq  (Hz) 	 Gain (dB)  	 Phase (deg)
1000.054            -59.180             66.419
1122.057            -58.967             61.505
1258.962            -58.676             60.293
1412.630            -58.292             71.562
1584.925            -57.456             65.970
1778.267            -56.950             17.204
1995.265            -56.951             69.088
2238.713            -55.730             73.285
2511.963            -54.513             73.104
2818.368            -54.218            -173.890
3162.213            -52.996             76.289
3548.153            -52.334             82.892
3981.031            -51.884             80.117
4466.809            -50.734             83.913
5011.819            -49.099             80.837
5623.326            -48.230            -67.645
6309.524            -46.583             86.654
7079.542            -45.401             83.408
7943.250            -43.579             85.902
8912.571            -42.116             87.000
9999.983            -39.889             85.676
11220.202            -37.703             84.871
12589.246            -34.453             84.243
14125.369            -30.101             81.229
15848.875            -20.819             67.112
17782.860            -21.590            -69.776
19952.655            -30.331            -82.152
22387.132            -34.685            -85.251
25118.887            -37.791            -86.150
28183.870            -40.091            -85.986
31622.685            -42.237            -88.463
35481.341            -43.779            -84.069
39810.687            -45.184            -83.938
44668.280            -46.834            -79.794
50118.752            -48.133            -84.257
56234.188            -49.760            -88.707
63095.801            -51.318            -81.600
70794.486            -51.928            -78.485
79432.875            -52.473            -67.780
89125.149            -53.546            -69.922
100000.016            -53.319            -69.924
