Freq  (Hz) 	 Gain (dB)  	 Phase (deg)
1000.054            -64.342             71.525
1122.057            -63.233             71.170
1258.962            -62.139             75.393
1412.630            -60.990             76.547
1584.925            -59.735             77.272
1778.267            -58.514             77.800
1995.265            -57.645             80.398
2238.713            -63.649            -104.136
2511.963            -55.718             81.970
2818.368            -54.719             82.366
3162.213            -53.563             83.657
3548.153            -52.676             84.342
3981.031            -51.461             85.199
4466.809            -50.242             84.817
5011.819            -48.182            106.628
5623.326            -48.190             80.373
6309.524            -46.448             86.051
7079.542            -45.114             86.468
7943.250            -43.612             86.001
8912.571            -41.910             86.383
9999.983            -40.015             86.184
11220.202            -37.609             85.681
12589.246            -34.495             84.437
14125.369            -29.856             80.771
15848.875            -19.799             64.276
17782.860            -22.467            -72.489
19952.655            -30.670            -83.316
22387.132            -35.010            -85.900
25118.887            -37.985            -86.751
28183.870            -40.277            -87.514
31622.685            -42.170            -87.611
35481.341            -43.806            -88.182
39810.687            -45.252            -88.207
44668.280            -46.605            -88.134
50118.752            -48.009            -88.816
56234.188            -49.229            -87.529
63095.801            -50.478            -88.651
70794.486            -51.786            -87.433
79432.875            -52.895            -86.838
89125.149            -53.792            -86.233
100000.016            -54.800            -85.877
