9/11/2019	10:42 AM
Amplitude: 2.00 V
Freq  (Hz) 	 Gain (dB)  	 Phase (deg)
 19.930             -0.316            -11.442
 22.352             -0.361            -12.767
 25.146             -0.413            -14.132
 28.312             -0.488            -15.897
 31.665             -0.576            -17.717
 35.577             -0.688            -19.633
 39.861             -0.811            -21.836
 44.703             -0.974            -24.130
 50.291             -1.162            -26.798
 56.438             -1.395            -29.371
 63.330             -1.661            -32.149
 70.967             -1.972            -35.075
 79.535             -2.334            -38.274
 89.407             -2.746            -41.433
100.210             -3.200            -44.535
112.504             -3.721            -47.759
126.101             -4.288            -50.676
141.561             -4.933            -53.915
158.884             -5.613            -56.918
178.255             -6.315            -59.560
200.048             -7.057            -62.227
224.449             -7.855            -64.821
251.830             -8.720            -67.242
282.563             -9.565            -69.328
317.022            -10.433            -71.255
355.579            -11.317            -73.145
398.979            -12.239            -74.796
447.780            -13.141            -76.149
502.355            -14.094            -77.548
563.636            -15.021            -78.654
632.368            -15.964            -79.811
709.668            -16.930            -80.796
796.281            -17.881            -81.550
893.325            -18.860            -82.512
1002.289            -19.809            -83.189
1124.665            -20.789            -83.758
1261.942            -21.769            -84.418
1415.983            -22.745            -84.866
1588.650            -23.715            -85.436
1782.551            -24.681            -85.608
1999.922            -25.690            -85.887
2244.115            -26.677            -86.549
2517.924            -27.616            -86.863
2825.074            -28.633            -87.113
3169.850            -29.540            -87.066
3556.535            -30.550            -87.242
3990.531            -31.501            -87.761
4477.426            -32.447            -87.631
5023.740            -33.518            -82.708
5636.737            -34.500            -82.777
6324.612            -35.425            -87.589
7096.305            -36.356            -88.592
7962.063            -37.593            -86.120
8933.619            -38.599            -89.184
