9/11/2019	10:42 AM
Amplitude: 2.00 V
Freq  (Hz) 	 Gain (dB)  	 Phase (deg)
100.024             -0.182             -4.252
125.915             -0.203             -5.407
158.511             -0.223             -6.745
199.489             -0.254             -8.565
251.271             -0.313            -10.575
316.277             -0.405            -13.349
398.047             -0.534            -16.432
501.238             -0.753            -20.410
630.878             -1.037            -24.950
794.418             -1.493            -30.318
1000.054             -2.088            -36.257
1258.962             -2.894            -42.565
1584.925             -3.920            -48.918
1995.265             -5.181            -55.250
2511.963             -6.621            -60.976
3162.213             -8.157            -65.768
3981.031             -9.907            -70.156
5011.819            -11.691            -73.898
6309.524            -13.547            -76.840
7943.250            -15.470            -79.001
9999.983            -17.390            -81.371
