10/3/2018	11:41 AM
Amplitude: 2.00 V
Freq  (Hz) 	 Gain (dB)  	 Phase (deg)
9999.983            -40.052             86.356
10233.000            -39.619             86.154
10471.232            -39.190             86.063
10715.239            -38.705             85.758
10964.833            -38.228             85.905
11220.202            -37.679             85.936
11481.531            -37.151             85.602
11749.007            -36.594             85.393
12022.629            -35.989             85.128
12302.771            -35.338             84.858
12589.246            -34.635             84.715
12882.426            -33.900             83.133
13182.499            -33.135             84.120
13489.649            -32.225             82.841
13803.877            -31.258             82.390
14125.369            -30.086             81.543
14454.313            -28.840             80.907
14791.079            -27.397             79.385
15135.668            -25.630             77.160
15488.081            -23.456             73.730
15848.875            -20.599             67.426
16218.051            -16.650             53.222
16595.796            -12.349             11.621
16982.481            -14.319            -39.957
17377.920            -18.433            -61.888
17782.860            -21.693            -71.322
18196.926            -24.231            -76.214
18620.864            -26.243            -79.797
19054.674            -27.907            -80.955
19498.356            -29.278            -82.129
19952.655            -30.488            -83.642
