10/7/2019	10:10 AM
Amplitude: 0.10 V
Freq  (Hz) 	 Gain (dB)  	 Phase (deg)
100.024             -4.851             84.306
125.915             -2.941             83.004
158.511             -1.004             81.633
199.489              0.913             79.294
251.271              2.848             76.666
316.277              4.748             73.570
398.047              6.553             69.585
501.238              8.301             64.980
630.878              9.907             59.419
794.418             11.365             53.132
1000.054             12.644             45.862
1258.962             13.682             38.432
1584.925             14.495             30.822
1995.265             15.088             23.106
2511.963             15.477             16.029
3162.213             15.725              8.956
3981.031             15.820              2.021
5011.819             15.855             -8.612
6309.524             15.607            -11.597
7943.250             15.385            -18.831
9999.983             14.903            -26.334
12589.246             14.217            -33.828
15848.875             13.335            -41.534
19952.655             12.213            -49.627
25118.887             10.857            -56.827
31622.685              9.312            -62.775
39810.687              7.589            -68.628
50118.752              5.777            -72.852
63095.801              3.826            -76.767
79432.875              1.995            -79.298
100000.016              0.077            -82.739
