10/7/2019	9:59 AM
Amplitude: 0.10 V
Freq  (Hz) 	 Gain (dB)  	 Phase (deg)
100.024             -4.890            -94.212
158.511             -1.013            -96.684
251.271              2.910            -100.378
398.047              6.773            -105.918
630.878             10.435            -114.377
1000.054             13.704            -127.194
1584.925             16.259            -144.092
2511.963             17.766            -164.228
3981.031             18.065            174.491
6309.524             17.176            153.810
9999.983             15.132            135.106
15848.875             12.204            120.649
25118.887              8.649            109.048
39810.687              4.815            101.694
63095.801              0.791             97.166
100000.016             -3.037             93.996
