10/7/2019	9:53 AM
Amplitude: 0.10 V
Freq  (Hz) 	 Gain (dB)  	 Phase (deg)
100.024             -4.879            -93.861
158.511             -1.020            -95.759
251.271              2.925            -99.164
398.047              6.789            -104.170
630.878             10.475            -111.683
1000.054             13.776            -122.979
1584.925             16.426            -137.159
2511.963             18.157            -153.706
3981.031             18.955            -170.266
6309.524             19.080            173.221
9999.983             18.471            157.208
15848.875             16.950            140.456
25118.887             14.428            125.141
39810.687             11.222            111.985
63095.801              7.438            103.766
100000.016              3.731             98.137
